Sample File	C:\Documents and Settings\bostonair\Desktop\OlinCollege\No Filter\Baseline2.S80
Classifier Model	3080
DMA Model	3085
DMA Inner Radius(cm)	0.00937
DMA Outer Radius(cm)	0.01905
DMA Characteristic Length(cm)	0.04987
CPC Model	3775 Low Flow
Gas Viscosity (kg/(m*s))	1.822e-005
Mean Free Path (m)	6.642e-008
Channels/Decade	64
Multiple Charge Correction	TRUE
Nanoparticle Aggregate Mobility Analysis	FALSE
Diffusion Correction	TRUE
Gas Density	0.0012
Units	dw/dlogDp
Weight	Number
Sample #	51
Date	03/10/17
Start Time	18:18:34
Diameter Midpoint
7.10	0
7.37	5091.37
7.64	4348.48
7.91	9353.89
8.20	11209.6
8.51	19927.7
8.82	14884.7
9.14	5235.51
9.47	11064.7
9.82	13265.7
 10.2	12699.9
 10.6	19556.6
 10.9	15765.7
 11.3	15371.9
 11.8	11247.5
 12.2	11964.8
 12.6	6825.37
 13.1	13965.6
 13.6	8107.26
 14.1	10368.9
 14.6	11526.6
 15.1	9244.94
 15.7	11831.3
 16.3	8834.69
 16.8	11672.5
 17.5	10717.4
 18.1	11145.6
 18.8	8357.85
 19.5	8283.42
 20.2	9730.69
 20.9	7217.99
 21.7	6097.79
 22.5	4340.68
 23.3	5314.91
 24.1	3862.63
 25.0	2837.63
 25.9	2730.96
 26.9	2574.62
 27.9	2416.57
 28.9	1758.06
 30.0	1783.76
 31.1	2519.73
 32.2	1776.35
 33.4	1660.8
 34.6	2141.61
 35.9	2038.07
 37.2	1971.42
 38.5	1863.78
 40.0	2177.54
 41.4	1898.01
 42.9	2122.7
 44.5	1901.49
 46.1	2164.36
 47.8	1487.27
 49.6	1289.2
 51.4	1264.36
 53.3	1416.87
 55.2	1633.22
 57.3	1618.97
 59.4	1393.68
 61.5	1010.38
 63.8	1410.34
 66.1	790.651
 68.5	1024.38
 71.0	879.88
 73.7	852.401
 76.4	1020.65
 79.1	857.101
 82.0	844.513
 85.1	885.681
 88.2	431.11
 91.4	677.762
 94.7	949.931
 98.2	420.626
101.8	625.407
105.5	814.038
109.4	909.121
113.4	905.639
117.6	543.445
121.9	778.585
126.3	646.495
131.0	640.557
135.8	625.839
140.7	969.75
145.9	448.476
151.2	714.162
156.8	742.768
Scan Up Time(s)	120
Retrace Time(s)	15
Down Scan First	FALSE
Scans Per Sample	1
Impactor Type(cm)	0.071
Sheath Flow(lpm)	3
Aerosol Flow(lpm)	0.3
CPC Inlet Flow(lpm)	0.3
CPC Sample Flow(lpm)	0.3
Low Voltage	25.3075
High Voltage	9448.65
Lower Size(nm)	6.97831
Upper Size(nm)	159.634
Density(g/cc)	1.2
Title	
Status Flag	Normal Scan
td(s)	2.93
tf(s)	0.783657
D50(nm)	1284.41
Median(nm)	13.7814
Mean(nm)	20.5556
Geo. Mean(nm)	15.8833
Mode(nm)	8.50526
Geo. Std. Dev.	1.85713
Total Concentration(#/cm³)	6535.85
Comment	
Sample File	D:\OlinCollege\All_data\OlinCollege\No Filter\Baseline2.S80
Classifier Model	3080
DMA Model	3085
DMA Inner Radius(cm)	0.00937
DMA Outer Radius(cm)	0.01905
DMA Characteristic Length(cm)	0.04987
CPC Model	3775 Low Flow
Gas Viscosity (kg/(m*s))	1.822e-005
Mean Free Path (m)	6.642e-008
Channels/Decade	64
Multiple Charge Correction	TRUE
Nanoparticle Aggregate Mobility Analysis	FALSE
Diffusion Correction	TRUE
Gas Density	0.0012
Units	dw/dlogDp
Weight	Number
Sample #	1	2	3	4	5	6	7	8	9	10	11	12	13	14	15	16	17	18	19	20	21	22	23	24	25	26	27	28	29	30	31	32	33	34	35	36	37	38	39	40	41	42	43	44	45	46	47	48	49	50	51
Date	03/10/17	03/10/17	03/10/17	03/10/17	03/10/17	03/10/17	03/10/17	03/10/17	03/10/17	03/10/17	03/10/17	03/10/17	03/10/17	03/10/17	03/10/17	03/10/17	03/10/17	03/10/17	03/10/17	03/10/17	03/10/17	03/10/17	03/10/17	03/10/17	03/10/17	03/10/17	03/10/17	03/10/17	03/10/17	03/10/17	03/10/17	03/10/17	03/10/17	03/10/17	03/10/17	03/10/17	03/10/17	03/10/17	03/10/17	03/10/17	03/10/17	03/10/17	03/10/17	03/10/17	03/10/17	03/10/17	03/10/17	03/10/17	03/10/17	03/10/17	03/10/17
Start Time	16:26:00	16:28:18	16:30:33	16:32:48	16:35:03	16:37:18	16:39:33	16:41:48	16:44:03	16:46:18	16:48:33	16:50:48	16:53:03	16:55:18	16:57:33	16:59:48	17:02:03	17:04:18	17:06:33	17:08:48	17:11:03	17:13:18	17:15:33	17:17:48	17:20:03	17:22:18	17:24:33	17:26:48	17:29:03	17:31:18	17:33:33	17:35:48	17:38:03	17:40:18	17:42:33	17:44:48	17:47:03	17:49:18	17:51:33	17:53:48	17:56:03	17:58:18	18:00:33	18:02:48	18:05:03	18:07:18	18:09:34	18:11:48	18:14:04	18:16:19	18:18:34
Diameter Midpoint
7.10	3000.4	0	60148.4	442978	697216	465013	406412	256111	284943	358922	378612	333746	335434	355781	351749	266285	189446	194791	102951	115468	30144.4	49975.1	38489.4	15002	27659.8	20486.9	35489	31316.5	24003.2	10829.5	6657.02	10829.5	1828.31	3000.4	3000.4	4828.71	10829.5	12001.6	3000.4	7829.12	3000.4	1828.31	9001.21	1828.31	3000.4	0	3000.4	0	12001.6	3000.4	0
7.37	5091.37	0	312044	1.9832e+006	2.53458e+006	1.68253e+006	1.15391e+006	875833	893293	1.01875e+006	1.11345e+006	1.12236e+006	1.12562e+006	1.21174e+006	1.26043e+006	951048	877222	749501	501140	379105	201984	186710	158866	205642	175890	108549	85240.1	113840	84603.7	96178.3	80905.2	60538.7	65034	30746.9	43276.7	52106.9	21558.6	28002.5	15472.8	28997	17819.8	13722.9	5091.37	28997	15274.1	12728.4	15274.1	7637.06	12728.4	2545.69	5091.37
7.64	0	0	242711	2.14723e+006	2.47719e+006	1.90707e+006	1.31417e+006	861270	893235	1.02799e+006	1.0495e+006	1.08882e+006	1.05853e+006	1.12826e+006	1.1465e+006	1.00391e+006	932309	866267	531436	394575	198741	202943	182497	164909	147539	105079	92003.5	75758.9	77948.3	58040.7	61063.5	64378.6	59729.3	47663.5	32613.6	51017.3	34618.1	43484.8	22752.2	22921.9	26090.9	23106.7	23106.7	15219.7	23916.6	14224.9	19568.1	6522.71	13230.2	7702.23	4348.48
7.91	4.71928	1870.78	209083	1.93618e+006	2.41864e+006	1.89727e+006	1.24775e+006	814838	827615	947499	936906	1.06111e+006	949015	1.00194e+006	1.04847e+006	997173	799820	758228	468551	393154	241752	201465	192400	157875	123172	135098	131680	89825.7	95260.1	82164.7	46624.6	65482	51207.9	44908.1	56128.1	36410.1	46774.2	22454.1	34544.1	19573.1	24324.8	34380.3	15667.8	14966.2	28066.4	10219.2	11224.7	14966.2	14811.9	17692.9	9353.89
8.20	4858.44	2363.11	199396	1.93182e+006	2.07889e+006	1.84536e+006	1.09249e+006	749001	799308	887186	860302	899583	888105	907665	1.01721e+006	879050	808472	689343	475215	336590	192571	208222	149290	140576	137074	98714.7	116267	80745	75762.6	80761.4	70153.7	47606.3	48352.7	59690.4	45243.2	47738.6	32412.8	43486.1	37267.1	36256.3	26671.7	21062.8	20052	12966.8	27550.3	12958.6	16208.4	18571.5	17825.2	16950.7	11209.6
8.51	2829.81	5011.67	109534	2.03046e+006	2.00784e+006	1.64601e+006	1.03224e+006	724389	778224	744092	779141	871004	804881	853840	895774	874406	723062	673215	471322	329951	172081	204970	157651	164608	138609	106617	117148	90145.3	91937.9	97737.1	102490	50019.7	56446.2	56704.9	34974.3	49771.3	42447.2	33419.8	48875.1	33299.4	34336.7	21223.6	26224.9	30869.3	14149.1	12734.2	21223.6	5011.67	20964.9	9127.06	19927.7
8.82	2480.79	439.435	177206	2.09325e+006	1.78643e+006	1.57817e+006	940755	668578	748424	769915	740280	781071	816844	818892	739620	771353	663751	616765	421556	319298	190411	161761	167531	140653	118922	142829	117837	109438	71482.1	94461.3	59595.5	58277.2	76443.6	56087	55548.2	50069.3	47212.9	39210.4	32455.6	42364.7	19385.5	32328.2	30322.3	22553.9	21526.1	28968.5	21965.6	14083.8	19272.1	11276.9	14884.7
9.14	3051.67	705.085	269276	1.81341e+006	1.6234e+006	1.40047e+006	813610	660364	636123	716723	654360	663642	689376	724671	744807	665967	687285	559881	441826	255724	165315	167452	144507	143776	123771	133345	102439	89730	74059.3	73285.6	61816.8	69304.8	60508	63613.8	42997.3	45636.5	46435.8	47975.9	26944	36580	45893.4	23729.6	25790.7	25533.8	28422.7	36066.2	14289.1	12492.1	15992	17470.7	5235.51
9.47	2133.79	2902.81	170964	1.26362e+006	1.55063e+006	1.2912e+006	752277	649640	624166	615612	589314	655010	606282	680192	654855	590156	598485	527312	404144	225013	147986	162646	140198	124217	120941	128605	89407.2	82664.1	80427.2	57060	61921.9	50653.9	59169.9	56116.3	41205	45375.7	37611	39149.1	33716.7	22599.5	37064.5	24611.1	21535	21137.9	22327.9	22327.9	16125.1	20740.7	20542.1	10643.7	11064.7
9.82	3439.03	1719.52	95750.4	975891	1.34591e+006	1.14256e+006	663351	618988	598725	640554	562883	582755	578956	602369	626211	573004	574607	501190	364765	228497	146924	141890	138485	133300	111627	97589.6	105023	87039	94553.1	62889.3	60972.1	60295.4	56501.7	61576.5	36917.6	46656.4	34543.3	34562	35326.6	34166.7	24907	31868.8	26143.3	23856.9	21098.7	20805.8	20238.9	22430.2	16137.8	12896.4	13265.7
 10.2	769.375	769.375	54962.1	907432	1.2435e+006	1.06899e+006	647918	539357	519074	571742	525908	524634	556195	532678	568449	524001	508776	451507	329326	232931	144368	137713	115279	107976	104753	103386	95147.7	75886.1	73006.7	68437.7	51511.4	52257.8	48171.9	51803.9	48673	41066.2	42016.9	31934.3	28413.4	26612.6	34370.3	31443.7	24321.2	28739.4	17182	25651.4	10963.1	24374.7	8527.07	13912.7	12699.9
 10.6	2070.39	1380.26	39398.3	901426	1.20051e+006	972283	569798	484616	502216	561569	476963	503944	481278	549493	497159	475070	460290	453844	302415	199744	124347	125784	116470	94266.5	104733	91562	75172.3	73332.4	81324.7	51936.3	72640.2	69650.3	55041.4	45322.2	51015.7	47392.6	42963.6	33361.2	30195.7	32956.2	30137.3	29562.9	26400.5	27031.2	18751.7	14492.7	18462.5	16219.6	12366	16161.2	19556.6
 10.9	1240.98	2481.97	40258	791598	1.06553e+006	890823	482744	475069	440609	505689	437880	448346	460236	488975	500721	452417	455484	369731	283937	190690	119257	117783	121612	84877	93966.2	86374.2	83254.2	75677.8	61097.6	57740	58980.9	53396.5	55677.8	53816.3	38907.9	44509	36078.2	35401.3	30074.9	27190.7	22227.7	25895.1	24343.4	20731.5	26825.4	25842.4	23359.5	16387.1	19691.1	10858.1	15765.7
 11.3	2243.68	3365.52	52249.9	720950	972836	779601	438033	419277	417285	403785	439856	417826	447990	404625	435524	448734	414804	357502	270896	177966	122258	106279	102487	98650.2	96248.3	89191.6	72632.1	62680.4	63624.5	70483.9	53656.3	52001.3	52024.9	44555.2	41896.5	38973.7	36957.1	30125.4	33512.5	31482.5	26434.2	24034.3	32625.9	17971	21079.7	19446.3	20362.7	17232.4	13226.8	16622.2	15371.9
 11.8	3415.44	3560.51	38313.3	734450	816014	759894	364877	376375	394837	437769	360627	399334	406349	374985	403167	385631	368287	324150	265881	186736	93800.4	100162	88905.5	98233.2	78571.5	80401.8	79193	63399.9	56366.6	64997.4	47413.4	59087.1	56431.2	50198.5	41906	38039.3	43399.8	33653	28301.6	27130.2	26184.5	26370.8	28244.3	26693.2	22147.6	21420.4	17827.7	16462.9	15171.6	13266	11247.5
 12.2	4291.5	4159.68	24658.6	584363	698863	662132	309041	309855	358743	362933	335488	357664	336506	377393	362725	358472	355475	308761	238623	156881	111948	97262.5	97374.8	97192.5	90197.9	80824	66230.9	58227.3	63889.1	58940.1	49230.9	51590.7	44975.3	38865.9	41489.3	43906.1	39497.4	34149.7	37235.3	29544.1	28603.5	18946.4	23519.4	22643.9	19623.4	16124.4	15545.1	17807.2	13994.1	16770.5	11964.8
 12.6	3798.39	2110.22	23536	461655	597974	517177	295655	284840	309348	330323	336276	345039	320593	338570	334875	347128	311109	281674	202128	118846	103009	95670.9	87213.5	90221.7	62141.5	71820.8	69316.3	59949.4	52317.3	53124	48922.5	45304.4	45878.6	34600.7	45304.4	38171.8	38873	33611.3	25979.2	31095.9	24119.9	24928.7	22853.8	21327.4	16532.4	16738.8	15967.4	17493.7	12689.4	13262	6825.37
 13.1	2320.81	2320.81	16327.1	290178	487916	422228	276495	231253	255992	298842	261215	281313	285601	299737	319542	299967	304150	272060	200653	130559	85438.9	89838.5	76236.5	66537.4	74695.6	76571	60049.4	60247.1	63176.1	44734.3	49864.2	52261.1	40692.4	39656.7	44190.6	31880	36603	28943.1	26101.7	30442.7	31327.8	21367.1	20602	22733.6	21105.6	18752.5	12970.5	14989.1	12575.3	10614.4	13965.6
 13.6	1772.42	3000.69	12776.9	248717	405175	301872	218247	216444	231562	238499	241121	234902	275332	291863	296284	263632	258785	233028	183139	106520	73011.2	83191.2	71790.5	73499.4	67804.6	76661.2	61211.1	57064.6	53201.8	53763.1	39622.1	44458.4	46924.5	35697.6	34163.1	32668.3	32271.8	38501.1	28443.1	33085.9	27791.7	21422.4	21694.5	21529.7	19996.9	22062.4	16306.2	11060	12110	10492.8	8107.26
 14.1	3442.55	2124.01	10384.8	196382	294629	261546	167260	160539	180107	203044	205284	228008	240605	242744	237791	241718	267905	212422	164411	89660.9	74467.5	73423.2	66425.6	68749.8	58532	53539.9	63041	52674.7	53615.5	46482.6	50880.1	40106.3	41170.7	39380.7	39233.9	36574	35768.5	27942.7	24905.9	24518.6	22916.3	19700.4	19716.3	20577.2	16544.3	18478.5	15793.3	14708.3	13657.7	13234.4	10368.9
 14.6	3673.29	2091.66	8012.94	134925	215621	193602	125622	124346	143027	158708	172616	188990	191429	208586	220257	211582	211713	190352	140561	85322.2	73229.1	73323.3	59773.8	62666	59293.2	55321.1	53775.5	51280.3	53160.7	42688.5	40119.6	35587.6	39080.7	28519.3	34005.9	29595.9	29786.6	21617.3	24600.4	23059.8	26978.7	14657.1	17964.5	15570.7	14761.9	16499.9	12287.2	9788.6	8559	10070.2	11526.6
 15.1	2043.27	1933.05	6982.2	94199.2	168496	145435	93050.1	96045.8	109882	140409	129598	154648	163026	175503	188289	184530	187991	161972	132966	80177.2	63533.8	54847.1	60566.8	52625.7	54388.2	56091.8	48881	44961.4	43612.4	38963.6	35556.4	33767.5	32527.8	34459.9	31642.7	22200	29156.4	21063.7	20765.7	20085.2	20922.7	21901.2	17040.7	15653.1	16117.9	18129.4	14436.1	13779.4	9198.25	13996.2	9244.94
 15.7	2232.25	2718.95	5207.31	73378.7	112731	104404	75228.1	77091	88479	94002.8	107246	122817	143121	146380	149702	162218	169467	162314	110340	71776.9	49831.4	49511	56720.9	49807.9	50726.5	44149.7	41071.7	37401.9	40356.2	40231.5	32928.9	30496.3	31059.6	34000.6	29245.1	29574.9	26137.7	23705.1	21473.8	19475	18865.4	16082.2	17781.4	16129.4	12475.8	14964.2	10997.8	14305.5	12160.2	13330.1	11831.3
 16.3	4014.87	1280.72	4581.93	58678.2	83577.5	80310.3	49063.6	57080.2	72347.3	87722.4	87706.7	91581.2	105824	119622	131947	132360	146704	128780	86896.4	67555.6	45694.6	53035.7	38843.4	40068.8	44246.9	36713.9	39237.7	37148.9	33511.8	33744.9	28025.8	31263.8	29459.9	27626.7	26898.4	25197.3	23056.3	22352.5	21869.9	20728	20128	18484.2	18280.3	18531.7	13328.4	15187.7	11391.4	11179.6	11213.6	12417.6	8834.69
 16.8	2018.79	2987.76	4287.19	32444.5	55417.3	57366.8	32762.1	41780.7	46399	51074.7	57351.1	74807.7	81487.4	102124	103282	109674	122385	100314	76897.9	55928.8	35213.3	44546	33816	31657.9	36166.4	37509	33843.7	35281.2	33013.3	36042.3	29707.5	27230.3	20827.6	28559.2	19389.5	22764.4	20329.5	20025.6	20662.3	16664.9	16720.9	14963.5	13843.5	16885.6	12198.8	13124.8	11327.3	10800.9	11838.9	11271.8	11672.5
 17.5	2797.69	2993.05	5109.19	22133.2	40816.1	40546.2	19511.7	27519.7	30762.3	44180.7	49549.3	60552.2	60759.8	70530.3	77845.4	92138.4	105317	87029.8	71381.2	48074.6	33899.5	29510.7	31845.6	31816	32177.1	29997.5	27317.5	32248	24838.4	30143.5	20210.6	23931.3	23586.9	23608.4	20386.8	22584.3	19439	15959.8	20088.5	15299.2	17217.5	13523.8	10954.1	11334.3	15041.6	13026.5	8392.45	11500.1	11921	11469.9	10717.4
 18.1	2979.05	2831.97	4983.64	15951.4	29060.9	24675.2	13693.2	15378	21640.9	28629.5	34364.8	42104.3	45246.6	55344.5	58649.2	69773.5	82085.4	72200.1	63125.3	37237.4	22670.6	28197.4	26340.6	26127.7	26695.5	28314.4	23184	22640.3	22305.8	22189.1	23573.8	18357.4	18600.4	18610.6	19878.9	17849.1	15936.4	17631.4	15824.4	11252.1	13292.2	15484.5	10099.7	8906.8	13271.6	11622	11545.9	9510.97	9815.47	9328.35	11145.6
 18.8	1850.06	2224.34	3099.01	8611.86	18702.5	14131.2	11147.1	11681.3	17791.7	18218.7	24855.6	29384.2	29713.5	43221.1	42775.7	53193.8	57161.7	52366	42367.2	25173	21076	21253.2	23001.4	18896.2	22086.4	24441	19289.4	20994.9	18355.5	20841.6	17309	16769.5	15714.2	15871.7	16394	15424	15069.3	13796.1	13567.4	14477.1	15559.7	8813.29	11770.1	10072.2	13669.3	11219.4	9904.65	8684.14	7692.24	7867.46	8357.85
 19.5	2565.42	2267.76	3989.45	7014.63	11108.6	11000.9	6122.52	8608.92	8182.98	14011.9	14983.9	15495.3	18028.8	23550.8	34717.9	36350.1	43557	43782.9	36511.3	15758.2	13570.4	15585.6	17490.9	16936.7	17134.7	17673.5	18177.6	17973.5	10966.2	13705	14433.8	13984.9	13401	12116.8	13137.1	11405.4	9534.86	13558.1	11491.7	14495.4	11319.1	12145.5	13707.8	9372.75	8331.81	9562.7	10025.7	8798.86	10108.8	8210.81	8283.42
 20.2	2483.03	2005.89	2718.1	3216.54	7625.32	8966.21	5925.18	5478.79	7477.89	8944.91	9920.49	10706.1	14208	19302.1	19394.6	22188.9	30388.7	32318.4	22255.5	13514.7	13227.6	9934.79	14563.6	15608.4	13951.4	14055.7	13220.1	11268.9	10411.9	11867.3	13471.6	11952.5	11591.8	9453.03	7698.67	11176.4	11406.9	9993.84	8161.3	7848.04	10034.3	8909.32	7874.18	9744.99	9227.41	10495	10511.4	6898.6	6915.06	8247	9730.69
 20.9	2951.98	2029.73	2678.53	4268.35	5273.41	3557.3	4025.55	3617.99	4802.45	7449.18	7835.93	7265.51	6718.21	10375.4	12301	15884.3	26297.2	27991.9	19893.8	11188.1	9515.76	10206	10920.1	9961.99	9107.4	10583.5	10223	9971.92	7758.74	7459.77	8167.13	8146.88	9701.27	7253.99	10118.3	7264.88	9991.61	6644.42	6809.46	7677.84	7735.1	9109.33	8123.14	7442.19	9420.82	6302.34	6724.95	9021.27	7365.46	6903.66	7217.99
 21.7	2644.82	2952.04	1563.88	3384.57	4632.2	3781.25	2167.29	3303.05	4226.23	3411.09	3576.36	6245.83	5998.01	5690.03	9395.72	10890.7	17923.7	18018	13165.3	9595.75	7511.56	9231.75	9048.06	8072.43	10985.3	7841.92	9861.34	7819.88	7341.82	6633.61	8257.49	6524.2	7539.45	6194.39	6818.93	7088.54	8540.58	8408.76	8245.09	6417.46	6754.47	6426.72	5930.96	5049.31	5238.24	7976.56	8228.92	4893.7	5324.09	7333.02	6097.79
 22.5	2981.52	2573.43	3062.57	2401.45	4128.55	3554.93	4017.93	3371.6	2317.03	1700.89	2709.81	3477.93	3429.02	4331.69	5581.25	5911.28	14876.3	14652.5	9816.38	8419.87	4471.92	5998.56	5659.72	7581.58	7311.09	6324.37	4796.46	6002.53	5567.47	5650.77	6583.07	6534.33	5394	6414.5	5795.29	5338.67	5049.35	7011.83	8338.7	6027.02	5864.87	4744.87	3861.88	7020.11	4998.27	3708.9	4930.56	5560.6	5566.29	4088.95	4340.68
 23.3	1767.33	1578.88	2685.56	3563.02	3234.65	2236.21	2617.53	1571.96	2012.57	2854.88	2905.75	2427.98	2864.88	3911.97	3137.44	2811.34	12310.7	11206.5	9714.21	6367.49	5896.89	5274.37	4730.26	5272.32	5787.45	5144.98	4419.99	4403.45	4095.08	5448.72	4303.9	4315.71	4292.88	4254.67	3598.51	5110.47	3824.38	5764.58	4498.51	5679.69	3850.08	4749.01	3241.44	4567.03	3611.15	4857.57	4514.19	3424.3	4038.88	3231.25	5314.91
 24.1	2448.11	2658.43	2839.27	2550.42	3039.81	3124.39	2212.81	3511.08	2674.72	2580.59	2587.73	2018.86	2643.61	2942.73	2839.2	2895.71	10822.6	9501	7427.05	7908.31	6668.04	5415.28	3771.63	4892.19	4840.09	3860.1	4787.89	4000.85	4619.14	5336.19	3269	3216.94	4248.84	4060.77	4124.56	3894.89	3682.19	3273.91	3830.03	4706	3571.85	2932.42	3914.72	3144.81	4130.32	4553.66	2882.56	4264.67	3907.74	3572.73	3862.63
 25.0	1824.73	2777.12	2447.68	2989.35	2641.33	2523.9	2750.39	1975.52	2289.59	2136.21	1956.85	1823.2	1829.9	2390.93	2472.81	2140.44	7827.18	9319.25	8548.83	3932.91	5429.74	4700.42	3591.52	5186.86	3069.6	3862.52	3673.73	2700.72	2867.15	3053.13	3466.07	4347.09	3378.49	2872.74	3795.99	2814.79	2069.62	3263.52	3267.83	3126.52	3306.97	3868.92	3936.7	3205.18	2487.46	2195.07	3326.31	3385.23	4490.51	3235.44	2837.63
 25.9	2368.73	2510.34	2734.16	1414.06	2517.01	3022.59	2802.78	2182.04	2278.07	2729.96	2282.2	2815.89	1662.6	2516.72	2303.36	2493.85	7065.16	9680.39	9435.7	4611.66	3967.48	4080.78	4282.02	4830.17	4283.75	4891.65	4518.04	3533.33	3483.02	3167.38	3464.5	3669.48	3158.89	2168.94	3885.03	3140.97	2413.32	3023.01	3880.29	2938.18	2101	3692.34	3068.02	2626.51	2397.15	3270.56	3280.22	1774.3	2668.63	3266.17	2730.96
 26.9	3152.63	2424.54	2349.06	1952.46	1632.7	2760.91	1854.65	2654.5	1867.23	1968.61	1599.81	1475.21	2393.1	2578.22	1672.92	866.551	7745.41	7642.02	8752.16	5574.63	4568.57	4266.65	3278.56	3637.56	3353.34	3054.02	2647.78	2842.8	3695.59	2888.85	3387.56	2847.38	3168.36	2001.41	2462.04	2544.74	2216.65	1508.9	2780.59	1664.35	1995.26	2968.85	2506.29	2701.84	2254.57	2339.32	1995.03	1994.78	1972.71	1900.22	2574.62
 27.9	2872.35	3011.66	2687.94	2678.38	2430.36	1977.15	2159.42	1981.65	2830.65	1507.65	1379.98	1751.97	2179.75	3290.7	2339.39	2678.15	7732.99	6929.82	7298.39	4849.97	4186.39	4566.17	3820	4478.93	4235.37	3357.92	3148.54	2966.81	3051.58	2588.51	3346.51	2551.35	1829.98	3611.68	3246.53	2243.62	2614.43	2458.75	3054.91	2510.71	2088.58	2490.87	2074.49	1711.51	1593.07	1949.89	1968.26	1260.91	1871.2	2568.01	2416.57
 28.9	2830.44	2408.38	2721.44	2619.15	2883.49	2844.67	2283.88	1815.61	2458.45	1949.13	2891.11	2506.68	1703.09	1737.57	1831.67	1898.16	7525.3	7841.86	6410.65	4948.84	4141.8	4306.88	3548.24	3370.59	3355.83	3220.42	2674.28	3028.5	2832.8	2022.31	2243.5	3729.03	3248.79	2873.52	2324.73	2526.03	2128.33	1848.5	2132.69	2416.84	1499.66	1818.88	3196.94	2130.39	1338.87	1999.55	2255.83	2370.43	3210.76	2526.51	1758.06
 30.0	2912.37	3492.3	2384.36	2495.03	2668.03	3192.19	2286.42	2493.46	2216.2	2961.29	2274.07	2081.14	2528.64	1963.15	1938.34	1935.99	6427.86	9181.95	5437.76	4396.14	4493.11	5370.31	3767.05	3261.63	4670.23	2743.1	2588.59	3093.13	3484.82	2986.38	3061.12	2691.55	2354.03	1788.12	2011.89	2282.71	2430.46	2411.07	2646.55	2831.24	1809.34	1798.31	1760.34	2261.87	2175.23	1219.59	1684.15	1776.63	1875.73	1621.62	1783.76
 31.1	3073.14	2458.74	2204.36	2926.98	2100.37	2451.71	1640.52	2258.06	2095.58	2243.41	1739.64	2300.23	2000.79	1788.44	1983.98	1675.8	7694.11	7728.58	6531.03	4460.4	4393.76	4592.36	4215.54	3474.13	2421.3	3567.82	3169.91	3718.1	3126.8	3441.69	2731.79	2401.75	2722.28	2400.67	2707.38	2208.19	2666.35	2013.74	2584.02	3135.15	1740.18	1626.52	2273.24	1801.15	2515.42	1857.38	2493.08	1651.52	1296.47	1648.02	2519.73
 32.2	2195.24	2892.39	2692.29	2709.81	2165.12	2294.13	1710.9	2786.42	2654.52	2559.13	2659.12	2435.9	1876.44	1383.68	1279.4	1588.93	6472.79	6757.3	6665.95	4324.83	3495.05	4415.3	3569.4	3509.89	4040.63	3200.27	3356.36	3348.7	2123.58	3319.11	2829.81	2182.84	2899.9	2321.37	2611.65	2718.55	2319.45	2597.43	2106.7	1868.53	2005.36	2191.15	2303.98	2185.37	2015.11	1677.08	1757.31	1700.97	1442.96	1776.39	1776.35
 33.4	2413.11	2621.67	2168.42	2235.45	2942.88	1704.37	3591.39	2512.33	2450.83	2538.53	1886.5	2586.97	2719.19	1758.57	2809.82	2298.89	7283.44	6523.45	6054.68	3733.5	4362.65	3027.54	3279.17	3024.3	2992.29	3160.96	4034.03	2925.78	3301.58	3545.23	2327.05	2705.96	2203.95	3073.25	2489.87	1417.85	2607.1	2395.6	2268.34	2142.28	2096.46	2039.82	2303.1	1632	1556.94	2069.3	2096.94	2670.68	2159.49	2026.21	1660.8
 34.6	3346.22	2281.14	2190.2	2214.11	2524.96	3063	1768.24	2699.88	2125.59	2156.64	2087.55	2137.45	2340.78	2365.59	1955.81	1190.04	7337.73	8096.03	6042.2	2961.82	3778.19	3243.36	2592.06	3737.14	4193.01	3234.57	2178.53	3491.05	3518.22	2728.49	2409.58	3196.12	2915.06	2949.53	2241.55	2243.43	2229.88	2920.28	2412.14	2748.15	2474.08	2075.96	2571.28	2140.93	2221.71	1888.38	1802.69	1441.63	2657.36	2471.68	2141.61
 35.9	2813.1	2582.94	2398.35	2056.67	2855.25	2305.46	2756.53	2718.85	2784.86	2599.43	1963.51	1746.34	2035.26	1319.76	1936.13	1687.92	7146.36	7355.48	6116.23	3548.73	4047.6	3297.79	3623.68	2909.26	2984.6	3006.58	2410.63	3674.24	2824.1	2509.67	3712.36	3311.77	2113.04	2298.07	1889.45	2205.27	1539.49	2622.06	1905.15	1949.96	2986.55	2151	2090.27	1186.41	1922.24	1512.94	1572.09	1673.46	1643.19	1294.48	2038.07
 37.2	2542.2	2662.74	2262.2	2648.32	1981.58	2422.86	2215.96	2612.07	2579.66	2004.3	1943.3	2081.58	1624.35	1451.67	2237.24	1819.25	7442.17	4484.73	5839.98	3583.72	3211.32	3230.76	3476.15	3315.27	3185.97	3732.59	2419.14	2908.74	3107.32	2573.52	2312.39	2334.7	2197.11	2127.22	2846.98	2247.2	1965.55	2366.47	1925.7	2461.41	1648.19	2347	1541.05	1901.54	2072.2	1640.23	1643.63	1412.59	1167.04	1845.3	1971.42
 38.5	2123.41	3089.55	2039.35	2993.11	3063.03	2420.66	2380.67	2137.57	1944.95	1954.9	1240.9	1694.99	1911.04	1862.07	1627.09	1796.52	7075.95	5641	5086.19	4628.58	3154.84	2811.86	2355.16	3220.7	2899.81	2791.93	2769.53	3188.88	1952.44	2444.18	2689.71	3510.53	2355.9	2881.07	2808.64	2060.34	1943.19	1536.54	2311.36	2128.45	2198.04	2031.12	2043.01	2091.31	1912.53	2405.89	1652.75	1704.76	1398.92	1828.88	1863.78
 40.0	2073.61	2767.45	1831.96	2703.27	2542.19	2037.4	2065.07	2111.49	1930.02	1572.19	2152.45	2132.33	1744.7	1663.09	1630.25	1533.21	6374.75	6553.97	3996.76	3243.09	2907.97	3807.24	2739.75	3515.01	2594.12	2556.2	3098.51	2881.63	2692.87	2607.75	1947.45	2778.89	2022.57	3297.5	2565.59	2857.61	2045.54	2088.63	2661.99	2256.84	1705.28	2024.62	1594.02	1610.69	2393.9	2326.47	1638.11	2112.99	1779.05	1678.77	2177.54
 41.4	2221.87	1745.74	2567.99	2277.05	2208.1	2179.24	2044.71	2250.13	2003.5	1928.54	1927.73	1571.55	2127.29	1587.52	1407.3	1909.89	5059.6	5883.62	6053.15	3153.61	3056.65	3065.78	2505.01	2370.73	3415.09	1930	2683.65	1970.79	2387.18	2426.26	1943.04	3406.8	2404.7	2502.69	2224.57	2675.39	3035.54	1973.34	1646.81	1514.04	2155.13	1837.37	2020.11	1775.04	1909.78	2086.04	1612.25	1673.84	2063.51	1481.26	1898.01
 42.9	2691.04	2243.22	2136.9	3261.16	1840.98	1571.66	2109.55	1502.83	2051.67	1820.31	2195.02	1952.26	1704.81	1486.91	2138.23	2431.95	5749.79	4466.31	5094.96	3233.48	2741.52	2991.15	2791	2788.76	2080.22	2587.61	2520.45	2468.18	2482.51	2191.02	2485	1970.86	2012.27	1842.66	2624.47	2403.78	1756.96	1767.34	1577.09	2115.11	2493.04	1929.3	1552.93	1219.1	1359.71	2386.93	2049.52	1827.84	1713.5	1650	2122.7
 44.5	1980.37	2075.99	1900.82	2123.3	2287.14	1694.92	1426.57	2375.29	2221.51	1953.25	1934.16	1396.61	1655.04	1704.79	2097.86	2105.32	5844.43	4810.01	4368.52	3225.35	2968.91	2481.31	3313.05	2828.28	3581.2	2618.23	2493.21	2289.83	2532.86	1998.09	2249.68	1754.11	3050.81	2872.21	1938.21	1803.12	1673.14	2372.8	1868.11	1674	1859.33	1673.24	2198.42	1567.7	2291.02	2243.94	1776.98	2061.4	1662.25	1167.85	1901.49
 46.1	2241.39	1548.05	1868.67	2505.42	2194.34	1818.84	1651.4	1570.08	1871.09	1335.37	1837.47	1411.36	1471.61	1973.36	1516.01	3455.79	6052.76	4215.03	3588.01	2825.27	2548.75	2422.16	2540.66	3314.18	2663.47	2912.42	1989.13	2255.21	2095.74	1955.07	1553.6	2661.33	2563.99	2187.11	2123.32	1279.48	2197.52	2341.49	1759.95	1602.38	2158.93	1682.45	1653.67	1589.15	2063.45	2475.73	1359.26	1885.48	2272.93	1956.71	2164.36
 47.8	2546.96	2821.19	1957.88	1272.59	1755.86	1685.68	1642.4	1828.14	1709.95	1386.6	1849.26	1812.27	1678.98	1025.18	1395.96	3149.74	5358.06	4079.26	3742.88	2325.04	2615.05	2920.9	3225.12	2853.81	3230.17	2582.56	2557	2807.61	2328.89	2415.86	2388.95	1854.31	1903.55	2000.98	1495.08	1833.39	2173.54	1821.37	2156.21	1680.66	1382.31	1307.44	1618.16	2118.65	1283.78	1456.82	1943.24	1749.94	1651.64	1258.6	1487.27
 49.6	2461.01	2400.95	1953.17	2128.7	1674.97	1195.1	1286.11	1903.67	1579.07	1715.91	1231.4	1435.15	1673.25	1398.19	1292.07	3178.08	6380.85	4089.01	3569.9	2336.63	2639.61	2986.99	2544.45	2389.67	2299.63	2501.28	1989.41	2560.86	1882.16	2587.06	2521.97	2144.36	1985.91	2053.13	1539.42	1976.85	1907.35	1924.85	1136	1548.31	1082.75	1836.37	2146.56	1348.06	1956.11	2177.66	1535.13	1462.12	1834.55	1686.55	1289.2
 51.4	1821.77	1291.75	1597.12	1413.54	1298.49	1140.24	1588.99	1367.35	1449.49	1211.33	2024.2	1581.72	1300	1609.76	1311.16	3760.55	4777.7	3927.17	3208.23	2438.56	2486.9	2355.07	1891.89	1984.65	2071.28	2557.11	2010.91	2263.71	2049.87	2018.36	2133.93	1487.4	1818.53	1424.97	1303.13	2230.64	1444	1924.57	1600.25	1606.77	1693.87	1907.7	1366.9	1610.47	1350.2	1430.59	1564.35	1605.51	1337.42	1588.85	1264.36
 53.3	1365.25	1651.75	1261.32	1871.13	2009.9	1870.7	1324.19	1763.26	1821.8	1220.84	1606.33	1376.18	1200.46	1151.93	1138.32	2701.06	5247.56	3914.8	3629.6	2910.87	2541.45	2144.36	2353.17	2589.99	2380.35	2225.36	1788.29	2208.14	1755.43	2224.42	2392.33	1141.47	1383.84	1688.62	1757.48	1082.62	1512.08	1411.62	1826.72	1728.09	1466.13	1218.31	2071.74	1523.44	1627.54	1166.95	1439.74	1492.68	1722.89	1434.3	1416.87
 55.2	1705.63	1688.67	2177.79	1674.45	1333.79	1433.8	1130.4	1408.11	1716.35	1507.28	1053.86	964.657	1259.71	1185.36	1780.88	2636.45	4363.48	4273.98	3507.72	2532.49	2371.18	2091.65	2580.32	1584.5	2118.33	1944.15	1827.93	1919.37	2777.87	1656.95	1467.43	1487.59	1727.92	1548.94	1884.41	1851.83	1457.89	1351	1452.79	1523.38	1320.09	1526.27	1684.91	1484.59	1711.99	1361.74	1392.41	1070.5	1046.78	1179.27	1633.22
 57.3	1329.76	1258.55	1532.72	1624.04	1232.77	1273.94	1354.17	1087.54	1163.81	1687.01	1414.38	1660.76	1593.61	1439.41	1356.91	2008.65	5403.24	3388.34	2884.64	1896.22	1703.78	1921.01	2028.64	1757.3	1800.28	1249.89	1916.17	1693.01	1708.61	1862.69	1260.08	1482.63	1754.74	1272.4	1532.96	1854.15	2101.88	1634.33	1498.24	1658.11	1362.17	1746.14	1485.8	1391.57	1618.41	1069.29	1346.09	1620.46	1102.24	1451.96	1618.97
 59.4	1761.74	1473.69	1809.09	1418.36	1178.88	1038.27	903.095	1046.59	1605.5	1501.75	1223.63	1203.59	1379.63	1167.51	1188.51	1511.32	4591.81	3213.51	3082.34	2455.02	1953.27	2152.78	1741.64	1495.04	2300.9	2474.95	1478.86	2123.2	1454.43	1230.15	1854.42	1417.9	2034.59	1553.85	1578.23	1643.92	1303.36	1272.25	1265.98	1244.92	961.723	1692.74	1218.98	1328.33	1505.07	1262.68	1194.81	1194.71	1197.17	1133.73	1393.68
 61.5	1208.21	1696.88	1477.03	1380.25	1282.44	802.502	1439.89	1272.32	1384.4	1616.92	908.399	1054.18	978.15	1073.44	956.122	1447.49	3561.16	3775.35	2017.67	1768.21	1814.27	1557.64	2167.68	1574.05	1681.33	1730.68	1762.78	1869.89	1460.81	1695.27	1437.5	1533.33	1263.12	1697.43	1551.23	856.801	1516.54	2018.27	1113.46	1196.35	1345.47	1165.27	1332.64	1068.45	1359.28	1205.42	763.03	1274.48	1737.13	1560.01	1010.38
 63.8	1200.24	1290.84	1317.9	998.222	792.861	1247.41	1380.74	1151.09	1356.99	1270.97	874.669	1143.52	759.541	1313.99	1159.85	2243.25	4487.48	2463.68	2661.58	2642.44	1996.28	1741.8	1420.12	1289.38	1619.29	1838.19	1791	1615.33	1675.43	2004.88	1697.3	1405.65	1052.99	1458.95	949.037	1566.3	994.733	1305.85	921.271	1373.47	1435.01	1327.35	986.777	1023.25	1084.18	1192.25	1732.67	1092.06	1136.21	1296.88	1410.34
 66.1	1487.55	1294.22	917.726	885.552	1037.88	983.659	954.374	1292.84	997.394	1046.97	1132.37	690.31	1482.94	1154.06	752.851	967.259	4622.26	2508.29	1933.07	1696.64	1604.96	2061.77	1684.02	1420.87	1613.95	1636.83	1460.78	1437.2	1513.97	1317.73	1347.22	1754.75	1152.59	1381.32	924.126	1641.3	994.324	1175.45	1393.28	1393.73	1234.72	1076.17	1495.2	1210.53	1543.07	869.089	1437.79	1045.51	958.374	909.244	790.651
 68.5	1331.51	891.714	1024.29	1076.73	837.28	1530.63	734.662	1542.56	987.62	1179.54	1226.49	1369.39	639.479	1093.51	785.756	1253.54	3129.26	3628.8	1974.66	1636.66	1421.08	973.742	1560.27	1127.88	1198.04	1447.2	1276.86	1248.49	955.649	1295.86	1220.18	1248.58	1439.76	1248.99	1077.44	1238.09	1057.25	1476.11	1662.27	1333.87	847.515	1442.58	971.192	1458.12	1636.16	1328.57	738.607	1170.78	1290.01	1013.68	1024.38
 71.0	842.651	1045.97	1202.37	915.11	1056.38	1102.24	883.639	921.569	1261.23	924.549	893.562	837.944	705.791	885.578	741.29	1849.14	3139.36	2070.79	2448.3	1110.59	1388.59	1313.68	1450.85	1268.61	1278.97	1467.59	1392.25	1136.28	1432.27	1138.1	1651.3	892.222	1301.15	679.888	1119.55	1368.28	1092.83	543.627	890.057	871.046	1034.37	754.657	1003.06	944.745	1155.4	1026.65	1217.88	1041.15	1110.01	1396.54	879.88
 73.7	977.83	868.268	1048.36	990.941	890.707	1045.48	1007.65	619.247	925.042	918.992	1148.17	804.145	944.223	816.493	858.161	1601.09	2808.42	2481	2308.49	1567.76	1040.28	1112.28	1220.97	1501.62	1465.44	738.334	1607.65	1403.49	1151.01	868.637	810.624	1397.81	1045.97	858.714	662.402	1270.71	916.861	1116.1	1262.26	1061.51	1069.83	749.008	572.652	753.071	1176.97	754.361	1060.45	962.2	991.583	918.824	852.401
 76.4	1011.23	1121.6	905.146	693.048	512.566	1066.04	927.977	1130.33	1000.19	1550.86	949.951	505.606	1029.65	774.521	904.405	1374.74	2693.09	2409.96	1327.38	1570.73	822.61	1411.42	996.994	1066.92	1287.7	1178.52	1180.04	1072.89	1471.73	1375.55	1007.22	1113.64	1028.5	986.337	1121.8	1281.17	1127.54	1515.66	834.739	970.672	562.792	605.884	1080.41	816.683	1019.3	554.139	832.956	955.237	648.431	820.175	1020.65
 79.1	1082.7	1161.84	882.061	795.238	888.137	796.764	788.075	818.964	653.578	988.618	1130.77	823.242	719.123	913.613	521.906	2400.12	2737.5	2041.03	1647.25	1005.82	1317.35	1423.71	1435.17	1190.01	1038.26	1478.8	1274	1006.39	957.637	771.795	1073.5	1114.89	1163.06	1131.52	1149.62	453.336	903.067	1010.02	797.606	988.081	1005.9	1004.36	844.67	635.844	993.903	543.094	829.564	1244.63	918.965	697.604	857.101
 82.0	1227.88	611.063	1175.22	607.322	441.055	594.728	1107.09	886.975	613.747	923.745	1098.99	951.296	1040.67	1006.16	711.229	2165.73	3065.18	2488.84	1430.73	1261.08	1585.49	1323.55	1344.83	863.559	1570.62	1492.01	1314.24	1407.13	1274.89	1031.22	1006.81	1172.39	941.379	877.372	949.09	693.829	1090.88	756.848	461.882	826.262	897.646	1025.28	638.766	845.912	698.539	935.497	837.373	750.234	467.092	861.319	844.513
 85.1	874.329	826.428	395.938	971.683	766.285	883.424	841.642	967.018	932.314	1082.92	1006.11	399.708	895.14	825.337	648.207	1619.67	3215.42	1737.82	1501.65	1554.53	1522.22	1533.33	1348.66	1266.87	1333.51	1044.24	1116.44	1081.17	1091.93	865.539	1242.97	822.541	1238.81	1131.51	788.828	1135.13	1080.94	875.439	878.424	861.89	1080.13	945.764	973.186	845.124	1089.17	916.046	1070.46	919.914	659.464	1150.71	885.681
 88.2	1259.02	1228.55	879.089	838.901	909.253	1009.42	1114.29	806.194	693.805	1121.71	1278.76	617.185	969.156	1148.56	787.639	2591.52	2845.37	2122.35	1377.1	1159.38	1175.94	1166.67	957.921	1050.79	1191.85	1312.74	985.517	745.232	874.378	872.57	782.682	848.981	910.717	613.563	943.471	1089.14	917.934	604.371	1071.48	1068.1	943.787	697.991	645.19	713.068	874.64	1430.01	758.493	1174.76	971.623	539.567	431.11
 91.4	756.201	849.313	485.787	963.43	816.725	844.056	1128.95	940.115	604.122	649.604	839.365	835.153	673.594	914.373	1001.23	3484.09	2654.09	2319.11	1738.79	929.469	927.795	1315.29	1204.11	1057.64	976.342	976.108	814.706	873.661	945.484	940.519	1176.71	1029.39	1200.31	732.886	675.169	1021.71	956.355	959.851	920.177	781.081	466.859	895.959	319.054	981.119	699.42	833.418	789.394	769.301	780.563	747.737	677.762
 94.7	1284.37	895.721	744.036	827.081	1067.11	939.893	751.221	831.334	681.767	866.851	669.74	859.964	776.243	1007	879.637	5493.72	2329.28	1943.31	1449.22	1082.99	1162.16	1108.38	676.144	969.986	812.636	1172.46	1061.49	1001.04	938.478	1175.1	1410.6	594.56	1046.32	727.617	713.53	796.149	929.461	1023.98	987.352	779.521	914.467	818.648	1170.76	965.745	632.66	731.39	601.726	648.547	574.014	507.482	949.931
 98.2	765.304	882.674	1068.95	1027.09	688.431	1061.83	768.308	766.148	581.741	802.208	663.799	885.683	646.66	946.928	545.173	5608.95	2280.95	1870.15	1522.69	1207.21	1395.91	1192.61	604.43	832.916	1271.31	460.091	820.391	902.12	848.815	1016.76	1288.52	1160.11	759.996	942.028	908.969	945.208	1159.24	1125.4	1169.5	713.983	742.322	978.991	549.539	822.505	557.846	841.862	713.624	992.49	950.025	916.669	420.626
101.8	699.14	908.592	732.882	834.577	430.112	866.23	997.801	782.751	628.36	1062.78	913.012	871.688	630.555	743.187	619.445	4806.17	2423.04	1866.28	1118.48	1129	1236.83	1123.76	1302.23	1321.95	1032.77	957.044	899.515	1102.28	943.988	806.806	772.546	1384.24	892.291	779.594	1116.12	636.705	1031.22	824.67	725.836	1159.33	1285.31	1056.26	735.496	951.008	491.111	881.879	698.473	819.648	860.129	902.999	625.407
105.5	1337.98	1094.59	1160.05	1051.83	1219.23	892.843	1297.59	943.443	775.823	832.526	1147.06	778.809	1237.46	1006.64	946.596	4948.58	2344.62	1867.85	1215.78	948.303	1315.92	1387.09	1023.78	1095.47	1086.45	1184.69	756.399	965.164	985.031	1151.93	993.351	851.666	858.598	928.938	869.423	658.7	802.958	1110.66	705.892	768.742	889.803	1339.82	726.714	958.696	492.457	1041.15	733.601	926.421	936.494	829.136	814.038
109.4	1302.93	1319.72	1238.41	1101.82	1281.4	1034.48	852.106	1157.93	1000.78	1108.35	1090.59	1175.69	930.678	816.552	1034.48	4323.07	3069.74	1884.7	1521.74	1041.04	1608.78	1276.73	1337.51	1276.73	1074.68	1004.58	1090.59	1182.28	1121.47	1673.31	1159.81	1021.34	1263.59	893.214	1119.58	1074.71	1209.36	1225.27	944.727	1234.62	691.22	1020.46	1175.69	1108.38	547.19	697.751	906.33	976.461	1207.48	1101.79	909.121
113.4	1335.68	864.997	1502.29	1395.64	1425.1	1349.86	1081.54	1387.49	1081.54	1215.71	1106.9	726.76	955.519	1110.99	832.51	3061.61	2693.67	2259.59	1392.64	1074.41	1579.67	873.152	1021.52	1046.02	798.993	727.816	1272.66	1302.11	645.475	1095.73	976.816	1155.72	1107.98	940.265	1216.77	1047.97	1014.45	1119.14	1003.21	1123.21	961.535	1208.61	1055.09	1021.52	861.989	1100.88	1014.45	1018.51	667.829	1040.89	905.639
117.6	1242.54	883.161	1365.65	1210.73	1386.78	1145.4	1272.89	1612.61	1283.83	873.681	1020.36	1009.19	970.818	533.965	998.503	2791.05	2579.3	1717.99	1640.77	1252.25	1327.53	930.51	1016.23	1335.78	1536.37	1302.04	1221.9	1115.05	956.737	1319.76	838.729	1149.3	869.557	786.275	1504.56	1006.75	912.305	919.346	979.066	1076.2	864.956	764.172	1010.65	811.044	819.543	804.48	1028.85	1002.63	923.469	581.314	543.445
121.9	1457.57	1016.58	1245.56	1379.27	1362.58	1156.13	849.717	1311.86	903.143	949.172	855.28	1162.79	1063.34	1294.3	1100.08	2910.83	2052.84	1914.67	1658.97	1027.48	908.706	913.168	1096.49	1518.31	876.064	1126.06	1001.5	972.298	1096.49	886.455	842.403	950.272	927.146	957.445	772.513	1311.86	776.099	822.863	811.002	812.103	926.27	1049.73	704.233	869.992	795.64	1131.62	695.084	893.994	981.448	863.328	778.585
126.3	1080.21	1489.53	1188.71	1501.61	1293.25	1117.21	1120.66	1046.43	1016.09	780.14	1275.75	1056.55	861.005	809.728	969.509	2822.97	2405.02	1662.61	1381.53	1624.39	1175.9	1084.17	1175.9	836.108	1100.92	1100.43	1183.29	915.024	1244.68	1003.28	604.093	864.457	744.399	987.745	558.969	1046.43	977.653	920.933	1011.42	1047.19	711.337	739.708	1066.66	560.939	838.83	625.05	691.132	988.497	896.767	700.493	646.495
131.0	1070.73	1310.12	1453.2	1288.53	875.821	1388.76	640.557	1045.85	1147.32	1040.49	1166.87	838.162	1027.72	898.674	822.725	2939.97	2156.3	1435.7	1410.19	1098.31	1207.86	1191.15	1202.5	1078.15	969.267	1072.79	926.884	1399.47	551.835	852.967	993.547	906.063	741.418	1055.93	1090.92	695.079	955.094	822.725	716.506	762.213	467.837	805.228	795.147	969.899	635.2	936.965	442.951	695.712	744.084	782.375	640.557
135.8	1021.85	716.913	1454.01	964.843	890.522	1015.72	950.847	950.847	847.01	861.006	1122.37	1272.54	1149.87	1015.22	956.187	1941.89	2418.86	1218.85	1316.05	994.36	792.025	1261.8	1096.17	1165.15	991.043	901.203	1082.18	880.343	1180.67	693.528	1009.09	956.187	1112.42	760.485	735.017	745.697	623.815	690.212	691.504	921.331	601.663	999.931	980.363	885.182	956.187	658.672	727.652	997.676	1051.37	983.679	625.839
140.7	989.199	832.121	1116.71	1043.59	956.313	693.223	1083.83	948.249	948.249	1183.19	959.634	794.493	1120.03	732.752	948.249	1920.61	1790.49	1466.37	1053.55	894.572	981.135	1096.4	1109.36	1003.35	824.058	652.273	878.445	1110.07	853.622	660.336	626.03	1338.85	673.623	1175.84	1043.59	1047.62	620.807	696.544	776.465	854.332	649.662	1030.63	1107.94	590.532	824.768	780.496	978.524	850.301	959.634	693.223	969.75
145.9	1177.77	892.301	1204.42	1018.33	878.471	936.822	791.213	754.77	894.086	556.561	863.395	834.49	758.268	739.154	762.307	1982.88	1827.95	1363.39	835.734	1170.93	1043.73	1109.62	1142.57	1220.03	842.027	985.382	1139.07	644.359	1156.4	830.451	846.066	469.844	779.636	973.806	853.604	750.731	886.008	640.32	619.492	614.913	1032.16	531.694	803.33	1039.7	706.209	638.066	699.916	659.434	614.913	929.285	448.476
151.2	947.759	941.354	1163.82	1189.15	1005.86	807.62	1096.9	1005.86	899.776	1209.29	809.937	720.003	951.657	764.367	866.922	1842.24	1542.56	1444.47	1239.83	1071.56	671.004	862.929	994.345	1090.59	835.274	1194.35	955.181	830.075	883.162	903.3	717.686	585.063	677.315	928.637	672.115	869.24	707.851	600.097	802.42	789.704	785.711	566.036	768.36	764.367	567.243	596.573	484.183	617.917	907.293	588.587	714.162
156.8	869.926	973.21	752.644	992.962	1077.87	958.124	551.143	870.47	850.717	1073.89	927.121	763.75	732.892	853.322	715.744	1811.99	1284.58	1048.93	979.794	1255.64	752.644	909.287	876.366	782.272	927.121	780.354	719.036	672.261	676.927	583.376	850.717	583.376	649.904	935.623	865.803	865.803	789.543	767.73	742.768	474.739	674.866	602.441	738.788	790.774	833.57	719.036	739.476	836.862	867.178	612.317	742.768
Scan Up Time(s)	120	120	120	120	120	120	120	120	120	120	120	120	120	120	120	120	120	120	120	120	120	120	120	120	120	120	120	120	120	120	120	120	120	120	120	120	120	120	120	120	120	120	120	120	120	120	120	120	120	120	120
Retrace Time(s)	15	15	15	15	15	15	15	15	15	15	15	15	15	15	15	15	15	15	15	15	15	15	15	15	15	15	15	15	15	15	15	15	15	15	15	15	15	15	15	15	15	15	15	15	15	15	15	15	15	15	15
Down Scan First	FALSE	FALSE	FALSE	FALSE	FALSE	FALSE	FALSE	FALSE	FALSE	FALSE	FALSE	FALSE	FALSE	FALSE	FALSE	FALSE	FALSE	FALSE	FALSE	FALSE	FALSE	FALSE	FALSE	FALSE	FALSE	FALSE	FALSE	FALSE	FALSE	FALSE	FALSE	FALSE	FALSE	FALSE	FALSE	FALSE	FALSE	FALSE	FALSE	FALSE	FALSE	FALSE	FALSE	FALSE	FALSE	FALSE	FALSE	FALSE	FALSE	FALSE	FALSE
Scans Per Sample	1	1	1	1	1	1	1	1	1	1	1	1	1	1	1	1	1	1	1	1	1	1	1	1	1	1	1	1	1	1	1	1	1	1	1	1	1	1	1	1	1	1	1	1	1	1	1	1	1	1	1
Impactor Type(cm)	0.071	0.071	0.071	0.071	0.071	0.071	0.071	0.071	0.071	0.071	0.071	0.071	0.071	0.071	0.071	0.071	0.071	0.071	0.071	0.071	0.071	0.071	0.071	0.071	0.071	0.071	0.071	0.071	0.071	0.071	0.071	0.071	0.071	0.071	0.071	0.071	0.071	0.071	0.071	0.071	0.071	0.071	0.071	0.071	0.071	0.071	0.071	0.071	0.071	0.071	0.071
Sheath Flow(lpm)	3	3	3	3	3	3	3	3	3	3	3	3	3	3	3	3	3	3	3	3	3	3	3	3	3	3	3	3	3	3	3	3	3	3	3	3	3	3	3	3	3	3	3	3	3	3	3	3	3	3	3
Aerosol Flow(lpm)	0.3	0.3	0.3	0.3	0.3	0.3	0.3	0.3	0.3	0.3	0.3	0.3	0.3	0.3	0.3	0.3	0.3	0.3	0.3	0.3	0.3	0.3	0.3	0.3	0.3	0.3	0.3	0.3	0.3	0.3	0.3	0.3	0.3	0.3	0.3	0.3	0.3	0.3	0.3	0.3	0.3	0.3	0.3	0.3	0.3	0.3	0.3	0.3	0.3	0.3	0.3
CPC Inlet Flow(lpm)	0.3	0.3	0.3	0.3	0.3	0.3	0.3	0.3	0.3	0.3	0.3	0.3	0.3	0.3	0.3	0.3	0.3	0.3	0.3	0.3	0.3	0.3	0.3	0.3	0.3	0.3	0.3	0.3	0.3	0.3	0.3	0.3	0.3	0.3	0.3	0.3	0.3	0.3	0.3	0.3	0.3	0.3	0.3	0.3	0.3	0.3	0.3	0.3	0.3	0.3	0.3
CPC Sample Flow(lpm)	0.3	0.3	0.3	0.3	0.3	0.3	0.3	0.3	0.3	0.3	0.3	0.3	0.3	0.3	0.3	0.3	0.3	0.3	0.3	0.3	0.3	0.3	0.3	0.3	0.3	0.3	0.3	0.3	0.3	0.3	0.3	0.3	0.3	0.3	0.3	0.3	0.3	0.3	0.3	0.3	0.3	0.3	0.3	0.3	0.3	0.3	0.3	0.3	0.3	0.3	0.3
Low Voltage	25.3075	25.3075	25.3075	25.3075	25.3075	25.3075	25.3075	25.3075	25.3075	25.3075	25.3075	25.3075	25.3075	25.3075	25.3075	25.3075	25.3075	25.3075	25.3075	25.3075	25.3075	25.3075	25.3075	25.3075	25.3075	25.3075	25.3075	25.3075	25.3075	25.3075	25.3075	25.3075	25.3075	25.3075	25.3075	25.3075	25.3075	25.3075	25.3075	25.3075	25.3075	25.3075	25.3075	25.3075	25.3075	25.3075	25.3075	25.3075	25.3075	25.3075	25.3075
High Voltage	9448.65	9448.65	9448.65	9448.65	9448.65	9448.65	9448.65	9448.65	9448.65	9448.65	9448.65	9448.65	9448.65	9448.65	9448.65	9448.65	9448.65	9448.65	9448.65	9448.65	9448.65	9448.65	9448.65	9448.65	9448.65	9448.65	9448.65	9448.65	9448.65	9448.65	9448.65	9448.65	9448.65	9448.65	9448.65	9448.65	9448.65	9448.65	9448.65	9448.65	9448.65	9448.65	9448.65	9448.65	9448.65	9448.65	9448.65	9448.65	9448.65	9448.65	9448.65
Lower Size(nm)	6.97831	6.97831	6.97831	6.97831	6.97831	6.97831	6.97831	6.97831	6.97831	6.97831	6.97831	6.97831	6.97831	6.97831	6.97831	6.97831	6.97831	6.97831	6.97831	6.97831	6.97831	6.97831	6.97831	6.97831	6.97831	6.97831	6.97831	6.97831	6.97831	6.97831	6.97831	6.97831	6.97831	6.97831	6.97831	6.97831	6.97831	6.97831	6.97831	6.97831	6.97831	6.97831	6.97831	6.97831	6.97831	6.97831	6.97831	6.97831	6.97831	6.97831	6.97831
Upper Size(nm)	159.634	159.634	159.634	159.634	159.634	159.634	159.634	159.634	159.634	159.634	159.634	159.634	159.634	159.634	159.634	159.634	159.634	159.634	159.634	159.634	159.634	159.634	159.634	159.634	159.634	159.634	159.634	159.634	159.634	159.634	159.634	159.634	159.634	159.634	159.634	159.634	159.634	159.634	159.634	159.634	159.634	159.634	159.634	159.634	159.634	159.634	159.634	159.634	159.634	159.634	159.634
Density(g/cc)	1.2	1.2	1.2	1.2	1.2	1.2	1.2	1.2	1.2	1.2	1.2	1.2	1.2	1.2	1.2	1.2	1.2	1.2	1.2	1.2	1.2	1.2	1.2	1.2	1.2	1.2	1.2	1.2	1.2	1.2	1.2	1.2	1.2	1.2	1.2	1.2	1.2	1.2	1.2	1.2	1.2	1.2	1.2	1.2	1.2	1.2	1.2	1.2	1.2	1.2	1.2
Title																																																			
Status Flag	Normal Scan	Normal Scan	Normal Scan	Normal Scan	Normal Scan	Normal Scan	Normal Scan	Normal Scan	Normal Scan	Normal Scan	Normal Scan	Normal Scan	Normal Scan	Normal Scan	Normal Scan	Normal Scan	Normal Scan	Normal Scan	Normal Scan	Normal Scan	Normal Scan	Normal Scan	Normal Scan	Normal Scan	Normal Scan	Normal Scan	Normal Scan	Normal Scan	Normal Scan	Normal Scan	Normal Scan	Normal Scan	Normal Scan	Normal Scan	Normal Scan	Normal Scan	Normal Scan	Normal Scan	Normal Scan	Normal Scan	Normal Scan	Normal Scan	Normal Scan	Normal Scan	Normal Scan	Normal Scan	Normal Scan	Normal Scan	Normal Scan	Normal Scan	Normal Scan
td(s)	2.93	2.93	2.93	2.93	2.93	2.93	2.93	2.93	2.93	2.93	2.93	2.93	2.93	2.93	2.93	2.93	2.93	2.93	2.93	2.93	2.93	2.93	2.93	2.93	2.93	2.93	2.93	2.93	2.93	2.93	2.93	2.93	2.93	2.93	2.93	2.93	2.93	2.93	2.93	2.93	2.93	2.93	2.93	2.93	2.93	2.93	2.93	2.93	2.93	2.93	2.93
tf(s)	0.783657	0.783657	0.783657	0.783657	0.783657	0.783657	0.783657	0.783657	0.783657	0.783657	0.783657	0.783657	0.783657	0.783657	0.783657	0.783657	0.783657	0.783657	0.783657	0.783657	0.783657	0.783657	0.783657	0.783657	0.783657	0.783657	0.783657	0.783657	0.783657	0.783657	0.783657	0.783657	0.783657	0.783657	0.783657	0.783657	0.783657	0.783657	0.783657	0.783657	0.783657	0.783657	0.783657	0.783657	0.783657	0.783657	0.783657	0.783657	0.783657	0.783657	0.783657
D50(nm)	1284.41	1284.41	1284.41	1284.41	1284.41	1284.41	1284.41	1284.41	1284.41	1284.41	1284.41	1284.41	1284.41	1284.41	1284.41	1284.41	1284.41	1284.41	1284.41	1284.41	1284.41	1284.41	1284.41	1284.41	1284.41	1284.41	1284.41	1284.41	1284.41	1284.41	1284.41	1284.41	1284.41	1284.41	1284.41	1284.41	1284.41	1284.41	1284.41	1284.41	1284.41	1284.41	1284.41	1284.41	1284.41	1284.41	1284.41	1284.41	1284.41	1284.41	1284.41
Median(nm)	24.0192	26.4409	8.69499	8.81734	8.90245	9.00477	8.866	9.23627	9.20645	9.17851	9.06634	9.06926	9.13377	9.13504	9.12183	9.25532	9.49748	9.46984	9.65225	9.44897	9.86636	9.84151	9.97494	9.97552	10.1919	10.3838	10.3515	10.5726	10.648	10.8457	10.877	11.1252	11.0958	11.1309	11.5843	11.222	11.6603	11.6286	11.903	11.8991	12.0222	11.899	12.0701	12.1635	12.0815	12.6083	12.4556	12.7963	12.4512	13.4285	13.7814
Mean(nm)	36.3611	37.906	10.926	9.51173	9.61331	9.74449	9.7474	10.1336	10.1461	10.1264	10.1044	10.1034	10.1846	10.1899	10.188	10.7728	11.2065	11.1144	11.4045	11.3287	12.2136	12.236	12.4493	12.5644	12.8196	13.0847	13.1835	13.5792	13.6698	13.8649	14.2025	14.459	14.4517	14.824	15.2136	15.0993	15.4758	15.798	16.2402	16.3525	16.3997	17.1426	17.4147	17.4399	17.5389	18.1475	18.4991	19.6688	19.2709	20.1644	20.5556
Geo. Mean(nm)	25.657	27.6348	9.45045	9.21993	9.32127	9.43009	9.35995	9.66265	9.68723	9.66839	9.62895	9.65111	9.71621	9.72422	9.72534	9.98362	10.2901	10.2548	10.4672	10.3089	10.8333	10.8483	10.9836	11.0408	11.2192	11.4455	11.4554	11.6837	11.7572	11.8726	12.0648	12.2474	12.2379	12.4567	12.7166	12.5282	12.8491	12.9587	13.3003	13.2855	13.3921	13.6879	13.8824	13.8363	13.8782	14.3853	14.4417	15.132	14.6133	15.4874	15.8833
Mode(nm)	7.36525	8.50526	7.36525	7.63506	7.36525	7.63506	7.63506	7.36525	7.36525	7.63506	7.36525	7.36525	7.36525	7.36525	7.36525	7.63506	7.63506	7.63506	7.63506	7.63506	7.91476	8.2047	7.91476	7.36525	7.36525	8.81683	7.91476	7.36525	7.91476	8.50526	8.50526	10.5545	8.81683	9.13982	7.91476	7.36525	8.81683	9.13982	8.50526	8.81683	9.13982	7.91476	11.3419	8.50526	9.13982	9.13982	10.9411	10.1815	8.50526	7.91476	8.50526
Geo. Std. Dev.	2.2633	2.1751	1.48202	1.23688	1.24459	1.24989	1.27061	1.29345	1.29394	1.29558	1.30251	1.2986	1.30369	1.30546	1.30616	1.36719	1.40414	1.39631	1.41087	1.42493	1.48579	1.48766	1.49867	1.50908	1.52357	1.52298	1.53693	1.56466	1.56316	1.57671	1.59488	1.60221	1.60195	1.61604	1.63257	1.64708	1.64788	1.68118	1.68674	1.70356	1.69209	1.74463	1.74689	1.75699	1.77497	1.76895	1.81225	1.84117	1.87877	1.85834	1.85713
Total Concentration(#/cm³)	2815.9	2523.47	35996.2	359470	424175	347939	214208	170872	177070	193456	188541	198162	197007	206982	212022	197003	187979	167484	119448	81794	50990.1	50742.5	45608.1	43147.4	39987.5	37003.1	33856.2	30184.3	28218.4	26504.2	23615.7	22202.4	21488.9	19674.9	17994.7	17820.7	16368.9	15026.5	13630.7	13288.6	12564.6	11267.9	10752.8	10279.4	9880.76	9414.35	8349.72	7679.74	7737.36	6960.35	6535.85
Comment																																																			
